ENTRY            13623     961204              20050926       0000
SUBENT        13623001     961204              20050926       0000
BIB                 14         32
INSTITUTE  (1USALAS,1USATAM,1USATEX)
REFERENCE  (J,PR/C,47,36,9301)
AUTHOR     (L.C.NORTHCLIFFE,M.JAIN,M.L.EVANS,G.GLASS,J.C.HIEBERT,
           R.A.KENEFICK,B.E.BONNER,J.E.SIMMONS,C.W.BJORK,
           P.J.RILEY)
TITLE      Differential cross section for n-p elastic scattering
            in the angular region 50 degrees<theta<180 degrees at
            459 MeV
FACILITY   (MESON,1USALAS) LAMPF
INC-SOURCE (P-D) protons on liquid deuterium target.
SAMPLE     Liquid hydrogen.
METHOD     (TOF)
DETECTOR   (MAGSP,SCIN,MWPC) Magnetic spectrometer containing 2
            scintillator planes, and 4 multiwire proportional
            counters.
           Neutron beam flux monitored using a pair of counter
            telescopes.
MONITOR    ((MONIT)1-H-1(N,PI0)1-H-2,,SIG) USED FOR absolute
            calibration of beam monitor
CORRECTION Corrected for:
           . background
           . multiple scattering in liquid deuterium target,
             scintillator, and spectrometer
           . energy-loss effects in liquid deuterium target and
             in the spectrometer
           . uncertainty in spectrometer position
           . absorption of of both protons and deuterons in the
             target and spectrometer
ERR-ANALYS (ERR-S) Statistical uncertainty.
STATUS     Data taken from reference
           No reply to author proof
HISTORY    (961015C)
ENDBIB              32
COMMON               3          3
EN         EN-ERR     MONIT
MEV        MEV        MB
 459.        3.        0.83
ENDCOMMON            3
ENDSUBENT           39
SUBENT        13623002     961021              20050926       0000
BIB                  1          1
REACTION   (1-H-1(N,EL)1-H-1,,DA,P)
ENDBIB               1
NOCOMMON             0          0
DATA                 3        189
ANG-CM     DATA-CM    ERR-S
ADEG       MB/SR      MB/SR
179.65      9.601      0.281
178.95      9.693      0.130
178.24      9.485      0.100
177.54      9.386      0.107
176.84      9.355      0.095
176.13      9.123      0.118
175.43      8.935      0.120
174.73      8.432      0.168
174.56      8.037      0.153
173.86      8.184      0.151
173.16      7.843      0.148
172.81      7.692      0.148
172.45      7.595      0.147
172.11      7.478      0.146
171.75      7.419      0.148
171.40      7.395      0.147
170.70      6.902      0.140
170.00      6.540      0.138
169.30      6.528      0.138
168.60      6.245      0.136
167.89      5.891      0.131
167.19      5.534      0.130
167.06      5.608      0.110
166.49      5.361      0.126
166.36      5.286      0.108
165.66      5.449      0.107
164.96      4.933      0.106
164.37      4.848      0.110
164.26      5.289      0.107
163.67      5.036      0.111
163.56      4.601      0.103
162.97      4.853      0.110
162.86      4.636      0.102
162.27      4.525      0.107
161.57      4.546      0.105
160.87      4.588      0.104
160.17      4.403      0.104
159.47      4.394      0.102
158.77      4.292      0.104
158.07      4.132      0.104
155.93      4.010      0.079
155.23      3.846      0.078
154.53      3.970      0.078
153.84      3.885      0.078
153.14      3.740      0.076
152.45      3.599      0.075
151.75      3.617      0.075
151.06      3.398      0.074
150.36      3.542      0.075
149.67      3.554      0.075
147.53      3.141      0.060
146.83      3.089      0.059
146.14      3.185      0.060
145.45      2.940      0.058
144.76      3.061      0.059
144.07      2.854      0.057
143.38      2.826      0.057
142.69      2.826      0.057
142.00      2.771      0.056
139.36      2.431      0.053
138.68      2.524      0.054
137.99      2.418      0.053
137.31      2.379      0.052
136.62      2.272      0.052
135.94      2.059      0.050
135.26      2.150      0.051
134.57      2.096      0.049
133.89      2.009      0.048
130.00      1.645      0.054
129.32      1.835      0.057
128.65      1.826      0.057
127.97      1.776      0.056
127.63      1.655      0.055
127.29      1.637      0.054
126.96      1.704      0.054
126.62      1.719      0.056
126.28      1.495      0.052
125.61      1.621      0.054
124.94      1.524      0.052
124.26      1.497      0.052
123.59      1.591      0.054
122.92      1.430      0.051
122.25      1.350      0.049
120.48      1.417      0.041
119.81      1.409      0.041
119.14      1.327      0.039
118.48      1.355      0.040
117.81      1.257      0.038
117.14      1.319      0.040
116.48      1.312      0.040
115.82      1.269      0.039
115.15      1.218      0.038
114.49      1.186      0.039
113.06      1.228      0.034
112.40      1.127      0.033
111.74      1.172      0.034
111.08      1.154      0.033
110.42      1.166      0.034
109.76      1.168      0.034
109.10      1.138      0.034
108.45      1.129      0.034
107.79      1.140      0.033
105.73      1.134      0.045
105.08      1.157      0.045
104.42      1.125      0.044
103.77      1.177      0.045
103.12      1.122      0.046
102.47      1.002      0.043
102.15      1.062      0.044
101.83      1.083      0.045
101.51      1.047      0.044
101.18      1.095      0.045
100.86      1.092      0.044
100.21      1.082      0.045
 99.57      1.159      0.045
 98.92      1.110      0.045
 98.28      1.052      0.045
 97.63      1.096      0.045
 96.99      1.051      0.045
 95.82      1.176      0.034
 95.18      1.107      0.034
 94.54      1.081      0.034
 93.90      1.207      0.035
 93.26      1.154      0.035
 92.63      1.144      0.034
 91.99      1.113      0.034
 91.35      1.208      0.036
 90.72      1.112      0.035
 89.10      1.208      0.045
 88.47      1.094      0.043
 87.84      1.190      0.045
 87.21      1.237      0.045
 86.58      1.250      0.046
 85.95      1.272      0.047
 85.45      1.199      0.045
 85.32      1.279      0.047
 84.82      1.253      0.046
 84.69      1.179      0.046
 84.19      1.265      0.048
 83.57      1.316      0.049
 82.94      1.292      0.048
 82.32      1.294      0.049
 81.69      1.338      0.049
 81.07      1.360      0.050
 79.75      1.378      0.038
 79.13      1.435      0.039
 78.51      1.522      0.040
 77.89      1.487      0.040
 77.27      1.459      0.041
 76.65      1.539      0.041
 76.03      1.520      0.041
 75.42      1.435      0.041
 74.80      1.549      0.042
 73.58      1.500      0.045
 72.96      1.607      0.046
 72.35      1.637      0.045
 71.74      1.667      0.046
 71.13      1.694      0.049
 70.75      1.598      0.046
 70.52      1.690      0.048
 70.14      1.739      0.046
 69.53      1.749      0.049
 68.92      1.751      0.047
 68.31      1.857      0.049
 67.70      1.842      0.050
 67.09      1.890      0.050
 66.48      1.874      0.050
 65.10      1.931      0.050
 64.50      1.911      0.050
 63.89      2.091      0.054
 63.29      2.038      0.053
 62.69      2.084      0.053
 62.08      2.148      0.054
 61.96      2.148      0.055
 61.48      2.129      0.055
 61.36      2.129      0.555
 60.76      2.173      0.056
 60.16      2.151      0.057
 59.56      2.216      0.058
 58.96      2.186      0.058
 58.36      2.318      0.061
 57.77      2.253      0.059
 56.67      2.381      0.049
 56.08      2.382      0.048
 55.48      2.448      0.050
 54.89      2.537      0.050
 54.29      2.527      0.049
 53.70      2.596      0.052
 53.11      2.649      0.052
ENDDATA            191
ENDSUBENT          197
ENDENTRY             2
