ENTRY            10275   20011204   20020117   20050926       0000
SUBENT        10275001   20011204   20020117   20050926       0000
BIB                 14         24
INSTITUTE  (1USAPTN)
REFERENCE  (J,PR/D,10,2735,197411)
AUTHOR     (P.F.Shepard,T.J.Devlin,R.E.Mischke,J.Solomon)
TITLE      Neutron-proton charge exchange scattering between
            600 MeV/c and 2000 MeV/c.
FACILITY   (SYNCH) Princeton-Pennsylvania accelerator
INC-SOURCE (EVAP) Protons on platinum target
SAMPLE     Liquid hydrogen
METHOD     (TOF) Time of flight over 108-foot path length
DETECTOR   (MAGSP) Wire chamber spectrometer
MONITOR    Flux monitored by three detectors.
CORRECTION Data corrected for:
            . ionization losses,
            . geometry,
            . chamber efficiencies,
            . background.
ERR-ANALYS (DATA-ERR) Errors given include detector uncertainties
            and systematic errors.
STATUS     (APRVD) Approved by author.
           Data received from T. Devlin, August 1974.
HISTORY    (19740924C)
           (19751202A) SAN 2 updated
           (19830110A) Converted to REACTION formalism
           (20011204A) Converted to new date formats, lower case.
ENDBIB              24
NOCOMMON             0          0
ENDSUBENT           27
SUBENT        10275002   20011204   20020117   20050926       0000
BIB                  2          2
REACTION   (1-H-1(N,EL)1-H-1,,DA)
HISTORY    (19751202A) Reaction corrected
ENDBIB               2
NOCOMMON             0          0
DATA                 4        373
EN         COS-CM     DATA-CM    DATA-ERR
MEV        NO-DIM     B/SR       B/SR
       182.    -0.9997      8.675      0.464
       182.    -0.9984      8.756      0.325
       182.    -0.9957      8.296      0.241
       182.    -0.9917      8.094      0.413
       182.    -0.9864      7.749      0.279
       182.    -0.9798      6.890      0.267
       182.    -0.9676      5.952      0.179
       182.    -0.9466      5.737      0.187
       182.    -0.7215      3.417      0.114
       182.    -0.6703      3.094      0.108
       182.    -0.6147      2.843      0.103
       182.    -0.5573      2.556      0.061
       182.    -0.4964      2.351      0.059
       182.    -0.4328      2.144      0.057
       196.    -0.9997     10.619      0.605
       196.    -0.9983      9.996      0.347
       196.    -0.9957      9.252      0.265
       196.    -0.9916      8.467      0.433
       196.    -0.9862      7.423      0.284
       196.    -0.9797      7.261      0.288
       196.    -0.9674      6.180      0.192
       196.    -0.9459      6.187      0.199
       196.    -0.7676      3.578      0.122
       196.    -0.7203      3.483      0.122
       196.    -0.6688      3.215      0.116
       196.    -0.6134      2.903      0.111
       196.    -0.5545      2.541      0.064
       196.    -0.4933      2.317      0.061
       196.    -0.4300      2.275      0.062
       196.    -0.3641      1.904      0.073
       210.    -0.9997     10.960      0.654
       210.    -0.9983      9.655      0.343
       210.    -0.9956      9.678      0.279
       210.    -0.9916      8.948      0.455
       210.    -0.9862      8.439      0.314
       210.    -0.9794      7.466      0.302
       210.    -0.9668      6.611      0.203
       210.    -0.9457      6.132      0.202
       210.    -0.7669      3.799      0.130
       210.    -0.7179      3.549      0.125
       210.    -0.6668      3.290      0.121
       210.    -0.6098      2.949      0.114
       210.    -0.5521      2.486      0.065
       210.    -0.4910      2.266      0.062
       210.    -0.4271      2.181      0.062
       210.    -0.3612      1.800      0.071
       224.    -0.9997     10.906      0.652
       224.    -0.9983      9.795      0.351
       224.    -0.9956      9.264      0.274
       224.    -0.9916      8.471      0.439
       224.    -0.9861      8.514      0.321
       224.    -0.9795      7.271      0.301
       224.    -0.9668      6.710      0.209
       224.    -0.9456      5.563      0.195
       224.    -0.7653      3.531      0.128
       224.    -0.7172      3.414      0.126
       224.    -0.6636      3.297      0.124
       224.    -0.6088      2.631      0.109
       224.    -0.5499      2.255      0.063
       224.    -0.4883      2.112      0.062
       224.    -0.4252      2.005      0.060
       224.    -0.3592      1.686      0.070
       239.    -0.9997      9.614      0.587
       239.    -0.9983      9.987      0.364
       239.    -0.9956      9.185      0.277
       239.    -0.9914      8.305      0.433
       239.    -0.9860      8.065      0.318
       239.    -0.9791      6.785      0.298
       239.    -0.9664      6.549      0.210
       239.    -0.9449      5.458      0.196
       239.    -0.9187      5.122      0.199
       239.    -0.8090      3.720      0.134
       239.    -0.7631      3.202      0.124
       239.    -0.7147      3.265      0.126
       239.    -0.6619      2.709      0.113
       239.    -0.6063      2.576      0.110
       239.    -0.5477      2.298      0.063
       239.    -0.4852      2.080      0.061
       239.    -0.4219      1.958      0.060
       239.    -0.3564      1.722      0.072
       257.    -0.9997     11.718      0.543
       257.    -0.9983      9.854      0.334
       257.    -0.9956      9.335      0.253
       257.    -0.9913      8.023      0.396
       257.    -0.9859      7.043      0.262
       257.    -0.9790      6.595      0.260
       257.    -0.9663      5.738      0.173
       257.    -0.9442      5.224      0.169
       257.    -0.9174      4.783      0.167
       257.    -0.8079      3.508      0.115
       257.    -0.7623      3.200      0.110
       257.    -0.7134      2.960      0.106
       257.    -0.6598      2.398      0.094
       257.    -0.6035      2.358      0.093
       257.    -0.5449      2.168      0.057
       257.    -0.4833      1.978      0.055
       257.    -0.4177      1.787      0.049
       257.    -0.3527      1.567      0.061
       257.    -0.2842      1.433      0.060
       284.    -0.9997     10.240      0.453
       284.    -0.9982      8.853      0.276
       284.    -0.9955      8.429      0.224
       284.    -0.9913      8.195      0.380
       284.    -0.9856      6.562      0.228
       284.    -0.9789      5.843      0.217
       284.    -0.9658      5.369      0.149
       284.    -0.9435      4.680      0.141
       284.    -0.9165      4.286      0.141
       284.    -0.8045      3.127      0.103
       284.    -0.7597      2.777      0.094
       284.    -0.7104      2.566      0.089
       284.    -0.6568      2.178      0.081
       284.    -0.6003      2.036      0.079
       284.    -0.5400      1.761      0.042
       284.    -0.4781      1.540      0.040
       284.    -0.4136      1.450      0.040
       284.    -0.3466      1.384      0.039
       284.    -0.2787      1.279      0.046
       313.    -0.9997     10.181      0.524
       313.    -0.9982      9.976      0.344
       313.    -0.9954      9.264      0.298
       313.    -0.9912      8.180      0.415
       313.    -0.9856      6.209      0.278
       313.    -0.9786      5.451      0.263
       313.    -0.9654      5.458      0.176
       313.    -0.9428      5.198      0.176
       313.    -0.9149      4.497      0.166
       313.    -0.8021      3.337      0.118
       313.    -0.7567      2.645      0.104
       313.    -0.7071      2.507      0.102
       313.    -0.6533      2.186      0.095
       313.    -0.5960      2.082      0.094
       313.    -0.5349      1.880      0.050
       313.    -0.4718      1.701      0.052
       313.    -0.4071      1.512      0.049
       313.    -0.3402      1.324      0.058
       313.    -0.2726      1.288      0.058
       344.    -0.9996     10.794      0.525
       344.    -0.9982      9.853      0.340
       344.    -0.9953      8.989      0.291
       344.    -0.9910      8.392      0.420
       344.    -0.9854      6.786      0.279
       344.    -0.9783      5.773      0.249
       344.    -0.9648      4.962      0.171
       344.    -0.9422      4.651      0.161
       344.    -0.9149      4.047      0.150
       344.    -0.8435      3.230      0.117
       344.    -0.8008      3.043      0.110
       344.    -0.7534      2.732      0.103
       344.    -0.7039      2.382      0.095
       344.    -0.6482      2.022      0.088
       344.    -0.5921      1.858      0.084
       344.    -0.5305      1.814      0.050
       344.    -0.4668      1.458      0.057
       344.    -0.4019      1.306      0.055
       344.    -0.3359      1.195      0.052
       344.    -0.2653      1.147      0.052
       344.    -0.1960      1.166      0.056
       378.    -0.9997     10.764      0.555
       378.    -0.9982     10.453      0.382
       378.    -0.9953      9.013      0.310
       378.    -0.9910      7.639      0.410
       378.    -0.9851      7.067      0.322
       378.    -0.9779      5.606      0.268
       378.    -0.9643      5.308      0.201
       378.    -0.9415      3.938      0.163
       378.    -0.8411      3.274      0.125
       378.    -0.7975      2.965      0.121
       378.    -0.7508      2.678      0.113
       378.    -0.6985      2.506      0.109
       378.    -0.6449      2.168      0.101
       378.    -0.5847      1.852      0.093
       378.    -0.5247      1.661      0.054
       378.    -0.4604      1.351      0.058
       378.    -0.3948      1.188      0.054
       378.    -0.3274      1.181      0.055
       378.    -0.2603      1.104      0.054
       378.    -0.1866      1.116      0.058
       378.     0.1607      1.359      0.069
       378.     0.2289      1.490      0.073
       378.     0.2956      1.610      0.078
       378.     0.3598      1.695      0.081
       378.     0.4212      1.741      0.084
       414.    -0.9996     11.035      0.600
       414.    -0.9981     10.177      0.396
       414.    -0.9953      9.136      0.331
       414.    -0.9908      7.839      0.417
       414.    -0.9850      6.507      0.314
       414.    -0.9775      5.805      0.301
       414.    -0.9639      5.015      0.210
       414.    -0.9415      4.182      0.184
       414.    -0.8772      3.526      0.141
       414.    -0.8390      3.308      0.129
       414.    -0.7955      2.777      0.114
       414.    -0.7468      2.467      0.112
       414.    -0.6949      2.038      0.103
       414.    -0.6398      1.886      0.094
       414.    -0.5806      1.551      0.089
       414.    -0.5185      1.395      0.051
       414.    -0.4550      1.262      0.059
       414.    -0.3891      1.034      0.053
       414.    -0.3196      0.928      0.050
       414.    -0.2500      0.972      0.053
       414.    -0.1803      0.965      0.055
       414.     0.1005      1.157      0.066
       414.     0.1694      1.355      0.073
       414.     0.2360      1.399      0.075
       414.     0.3002      1.661      0.084
       414.     0.3668      1.737      0.088
       414.     0.4271      1.706      0.090
       414.     0.4869      2.042      0.100
       466.    -0.9996     10.203      0.467
       466.    -0.9981      9.711      0.342
       466.    -0.9951      8.433      0.320
       466.    -0.9906      7.274      0.379
       466.    -0.9846      6.085      0.278
       466.    -0.9771      5.644      0.264
       466.    -0.9631      4.511      0.186
       466.    -0.9389      3.896      0.168
       466.    -0.9103      3.424      0.139
       466.    -0.8746      3.277      0.115
       466.    -0.8348      2.995      0.103
       466.    -0.7912      2.677      0.102
       466.    -0.7428      2.185      0.090
       466.    -0.6893      1.838      0.082
       466.    -0.6329      1.672      0.079
       466.    -0.5738      1.297      0.067
       466.    -0.5113      1.177      0.036
       466.    -0.4458      1.092      0.043
       466.    -0.3795      0.865      0.039
       466.    -0.3083      0.843      0.039
       466.    -0.2403      0.775      0.038
       466.    -0.1700      0.854      0.041
       466.     0.1103      1.153      0.051
       466.     0.1798      1.203      0.053
       466.     0.2458      1.393      0.060
       466.     0.3120      1.513      0.064
       466.     0.3756      1.641      0.068
       466.     0.4361      1.766      0.073
       466.     0.4951      2.051      0.082
       466.     0.5512      2.203      0.089
       542.    -0.9996      9.971      0.518
       542.    -0.9980      8.048      0.372
       542.    -0.9950      7.323      0.407
       542.    -0.9903      6.282      0.396
       542.    -0.9841      5.328      0.316
       542.    -0.9763      4.294      0.272
       542.    -0.9623      3.689      0.206
       542.    -0.9374      2.825      0.175
       542.    -0.9070      2.651      0.166
       542.    -0.8722      2.351      0.088
       542.    -0.8320      2.196      0.098
       542.    -0.7846      1.900      0.093
       542.    -0.7355      1.353      0.077
       542.    -0.6829      1.349      0.078
       542.    -0.6222      1.105      0.070
       542.    -0.5627      1.031      0.067
       542.    -0.4995      0.964      0.036
       542.    -0.4319      0.822      0.034
       542.    -0.3658      0.684      0.037
       542.    -0.2970      0.616      0.036
       542.    -0.2274      0.572      0.035
       542.    -0.1549      0.584      0.037
       542.    -0.0848      0.617      0.040
       542.     0.1264      0.870      0.049
       542.     0.1945      1.001      0.054
       542.     0.2632      1.077      0.057
       542.     0.3257      1.272      0.065
       542.     0.3896      1.447      0.072
       542.     0.4489      1.611      0.078
       542.     0.5055      1.871      0.088
       542.     0.5643      2.095      0.105
       542.     0.6149      2.302      0.124
       542.     0.6637      2.579      0.150
       649.    -0.9996      7.636      0.383
       649.    -0.9980      6.740      0.324
       649.    -0.9947      5.174      0.296
       649.    -0.9898      4.563      0.280
       649.    -0.9834      4.282      0.251
       649.    -0.9752      3.369      0.203
       649.    -0.9601      2.741      0.151
       649.    -0.9348      2.430      0.139
       649.    -0.9031      1.959      0.079
       649.    -0.8663      1.572      0.068
       649.    -0.8242      1.225      0.065
       649.    -0.7770      0.933      0.048
       649.    -0.7239      0.828      0.046
       649.    -0.6689      0.670      0.041
       649.    -0.6092      0.563      0.038
       649.    -0.5456      0.538      0.038
       649.    -0.4831      0.476      0.027
       649.    -0.4145      0.451      0.021
       649.    -0.3468      0.406      0.022
       649.    -0.2768      0.402      0.023
       649.    -0.2037      0.328      0.021
       649.    -0.1314      0.341      0.022
       649.     0.0782      0.694      0.042
       649.     0.1487      0.766      0.045
       649.     0.2134      0.953      0.051
       649.     0.2814      1.098      0.058
       649.     0.3466      1.377      0.067
       649.     0.4088      1.678      0.077
       649.     0.4663      1.819      0.085
       649.     0.5238      2.341      0.112
       649.     0.5784      2.873      0.151
       649.     0.6303      3.312      0.202
       817.    -0.9996      6.809      0.405
       817.    -0.9979      5.941      0.290
       817.    -0.9944      5.233      0.255
       817.    -0.9891      4.689      0.232
       817.    -0.9822      4.126      0.204
       817.    -0.9736      3.502      0.187
       817.    -0.9579      2.485      0.116
       817.    -0.9303      2.024      0.101
       817.    -0.8972      1.639      0.062
       817.    -0.8581      1.289      0.049
       817.    -0.8128      1.085      0.066
       817.    -0.7634      0.792      0.062
       817.    -0.7085      0.726      0.055
       817.    -0.6532      0.459      0.045
       817.    -0.5892      0.489      0.047
       817.    -0.5211      0.395      0.043
       817.    -0.4538      0.323      0.041
       817.    -0.3889      0.311      0.023
       817.    -0.3171      0.262      0.021
       817.    -0.2429      0.239      0.021
       817.    -0.1733      0.212      0.021
       817.    -0.1027      0.202      0.021
       817.    -0.0302      0.206      0.021
       817.     0.0427      0.227      0.027
       817.     0.1138      0.295      0.031
       817.     0.1803      0.329      0.033
       817.     0.2443      0.392      0.037
       817.     0.3116      0.599      0.047
       817.     0.3735      0.527      0.044
       817.     0.4349      0.810      0.060
       817.     0.4937      0.993      0.073
       817.     0.5455      1.302      0.095
       817.     0.5983      1.616      0.132
       817.     0.6485      2.043      0.203
      1028.    -0.9995      5.807      0.396
      1028.    -0.9976      6.012      0.318
      1028.    -0.9939      5.004      0.222
      1028.    -0.9883      3.988      0.189
      1028.    -0.9807      3.736      0.190
      1028.    -0.9715      2.829      0.160
      1028.    -0.9548      2.235      0.112
      1028.    -0.9252      1.664      0.094
      1028.    -0.8891      1.319      0.049
      1028.    -0.8471      0.954      0.048
      1028.    -0.8000      0.885      0.069
      1028.    -0.7467      0.578      0.045
      1028.    -0.6897      0.528      0.053
      1028.    -0.6289      0.431      0.048
      1028.    -0.5569      0.350      0.043
      1028.    -0.4980      0.278      0.040
      1028.    -0.4265      0.258      0.039
      1028.    -0.3594      0.191      0.017
      1028.    -0.2836      0.158      0.016
      1028.    -0.2064      0.146      0.016
      1028.    -0.1403      0.117      0.015
      1028.    -0.0677      0.109      0.014
      1028.     0.0795      0.157      0.024
      1028.     0.1487      0.177      0.026
      1028.     0.2151      0.260      0.032
      1028.     0.2803      0.181      0.027
      1028.     0.3448      0.260      0.033
      1028.     0.4060      0.423      0.044
      1028.     0.4625      0.577      0.053
      1028.     0.5217      0.602      0.060
      1028.     0.5738      0.901      0.087
      1028.     0.6207      1.045      0.133
      1028.     0.6696      1.367      0.167
ENDDATA            375
ENDSUBENT          382
ENDENTRY             2
